File: Dataset/XRD/2882a CFA - Sodalite/2882a CFA - Sodalite_1.xy
10.00000 229.000
10.24550 263.000
10.49101 232.000
10.73651 255.000
10.98202 265.000
11.22752 233.000
11.47302 238.000
11.71853 210.000
11.96403 195.000
12.20954 223.000
12.45504 249.000
12.70054 220.000
12.94605 247.000
13.19155 265.000
13.43705 215.000
13.68256 248.000
13.92806 270.000
14.17357 263.000
14.41907 257.000
14.66457 244.000
14.91008 283.000
15.15558 271.000
15.40109 267.000
15.64659 250.000
15.89209 292.000
16.13760 299.000
16.38310 335.000
16.62861 283.000
16.87411 267.000
17.11961 270.000
17.36512 268.000
17.61062 275.000
17.85613 280.000
18.10163 289.000
18.34713 278.000
18.59264 289.000
18.83814 343.000
19.08365 320.000
19.32915 321.000
19.57465 371.000
19.82016 405.000
20.06566 336.000
20.31116 379.000
20.55667 383.000
20.80217 2435.000
21.04768 394.000
21.29318 359.000
21.53868 361.000
21.78419 365.000
22.02969 429.000
22.27520 347.000
22.52070 384.000
22.76620 388.000
23.01171 393.000
23.25721 364.000
23.50272 403.000
23.74822 381.000
23.99372 539.000
24.23923 460.000
24.48473 420.000
24.73024 376.000
24.97574 452.000
25.22124 604.000
25.46675 570.000
25.71225 645.000
25.95775 820.000
26.20326 878.000
26.44876 1591.000
26.69427 7441.000
26.93977 604.000
27.18527 474.000
27.43078 575.000
27.67628 482.000
27.92179 508.000
28.16729 415.000
28.41279 396.000
28.65830 392.000
28.90380 384.000
29.14931 393.000
29.39481 362.000
29.64031 416.000
29.88582 484.000
30.13132 395.000
30.37683 416.000
30.62233 392.000
30.86783 489.000
31.11334 653.000
31.35884 527.000
31.60434 416.000
31.84985 390.000
32.09535 367.000
32.34086 380.000
32.58636 396.000
32.83186 486.000
33.07737 825.000
33.32287 540.000
33.56838 365.000
33.81388 325.000
34.05938 355.000
34.30489 355.000
34.55039 395.000
34.79590 413.000
35.04140 443.000
35.28690 680.000
35.53241 716.000
35.77791 670.000
36.02342 513.000
36.26892 584.000
36.51442 1883.000
36.75993 777.000
37.00543 646.000
37.25094 485.000
37.49644 409.000
37.74194 396.000
37.98745 345.000
38.23295 326.000
38.47845 303.000
38.72396 294.000
38.96946 343.000
39.21497 451.000
39.46047 1551.000
39.70597 381.000
39.95148 324.000
40.19698 734.000
40.44249 438.000
40.68799 579.000
40.93349 649.000
41.17900 397.000
41.42450 284.000
41.67001 301.000
41.91551 309.000
42.16101 404.000
42.40652 1267.000
42.65202 382.000
42.89753 344.000
43.14303 361.000
43.38853 320.000
43.63404 313.000
43.87954 334.000
44.12504 360.000
44.37055 409.000
44.61605 478.000
44.86156 406.000
45.10706 418.000
45.35256 412.000
45.59807 504.000
45.84357 696.000
46.08908 349.000
46.33458 331.000
46.58008 319.000
46.82559 300.000
47.07109 258.000
47.31660 293.000
47.56210 311.000
47.80760 275.000
48.05311 373.000
48.29861 303.000
48.54412 293.000
48.78962 295.000
49.03512 304.000
49.28063 386.000
49.52613 490.000
49.77164 414.000
50.01714 1551.000
50.26264 1252.000
50.50815 294.000
50.75365 318.000
50.99915 276.000
51.24466 264.000
51.49016 269.000
51.73567 265.000
51.98117 255.000
52.22667 268.000
52.47218 299.000
52.71768 324.000
52.96319 319.000
53.20869 379.000
53.45419 385.000
53.69970 433.000
53.94520 604.000
54.19071 600.000
54.43621 430.000
54.68171 559.000
54.92722 731.000
55.17272 549.000
55.41823 562.000
55.66373 335.000
55.90923 317.000
56.15474 325.000
56.40024 316.000
56.64574 343.000
56.89125 365.000
57.13675 420.000
57.38226 474.000
57.62776 472.000
57.87326 386.000
58.11877 374.000
58.36427 387.000
58.60978 409.000
58.85528 445.000
59.10078 498.000
59.34629 496.000
59.59179 614.000
59.83730 1712.000
60.08280 1338.000
60.32830 505.000
60.57381 639.000
60.81931 529.000
61.06482 440.000
61.31032 386.000
61.55582 383.000
61.80133 377.000
62.04683 372.000
62.29234 489.000
62.53784 516.000
62.78334 499.000
63.02885 452.000
63.27435 465.000
63.51985 452.000
63.76536 503.000
64.01086 849.000
64.25637 550.000
64.50187 603.000
64.74737 683.000
64.99288 638.000
65.23838 641.000
65.48389 572.000
65.72939 632.000
65.97489 538.000
66.22040 549.000
66.46590 491.000
66.71141 513.000
66.95691 495.000
67.20241 457.000
67.44792 540.000
67.69342 1508.000
67.93893 1124.000
68.18443 1651.000
68.42993 829.000
68.67544 403.000
68.92094 397.000
69.16644 385.000
69.41195 380.000
69.65745 390.000
69.90296 397.000
70.14846 400.000
70.39396 428.000
70.63947 372.000
70.88497 396.000
71.13048 384.000
71.37598 355.000
71.62148 384.000
71.86699 398.000
72.11249 358.000
72.35800 356.000
72.60350 350.000
72.84900 329.000
73.09451 350.000
73.34001 601.000
73.58552 560.000
73.83102 405.000
74.07652 416.000
74.32203 441.000
74.56753 426.000
74.81303 457.000
75.05854 478.000
75.30404 501.000
75.54955 872.000
75.79505 602.000
76.04055 385.000
76.28606 356.000
76.53156 359.000
76.77707 350.000
77.02257 340.000
77.26807 368.000
77.51358 613.000
77.75908 521.000
78.00459 377.000
78.25009 329.000
78.49559 295.000
78.74110 305.000
78.98660 298.000
79.23211 317.000
79.47761 337.000
79.72311 610.000
79.96862 652.000
80.00953 677.000