File: Dataset/XRD/2882a CFA - Sodalite/2882a CFA - Sodalite.xy
10.00000 255.000
10.24550 226.000
10.49101 227.000
10.73651 235.000
10.98202 207.000
11.22752 244.000
11.47302 199.000
11.71853 209.000
11.96403 232.000
12.20954 245.000
12.45504 260.000
12.70054 229.000
12.94605 231.000
13.19155 262.000
13.43705 242.000
13.68256 238.000
13.92806 243.000
14.17357 238.000
14.41907 243.000
14.66457 290.000
14.91008 218.000
15.15558 248.000
15.40109 233.000
15.64659 247.000
15.89209 238.000
16.13760 292.000
16.38310 322.000
16.62861 292.000
16.87411 269.000
17.11961 244.000
17.36512 246.000
17.61062 276.000
17.85613 273.000
18.10163 280.000
18.34713 280.000
18.59264 266.000
18.83814 306.000
19.08365 342.000
19.32915 309.000
19.57465 342.000
19.82016 376.000
20.06566 413.000
20.31116 393.000
20.55667 338.000
20.80217 2215.000
21.04768 398.000
21.29318 352.000
21.53868 391.000
21.78419 362.000
22.02969 423.000
22.27520 398.000
22.52070 363.000
22.76620 379.000
23.01171 388.000
23.25721 420.000
23.50272 430.000
23.74822 370.000
23.99372 518.000
24.23923 457.000
24.48473 416.000
24.73024 394.000
24.97574 404.000
25.22124 633.000
25.46675 561.000
25.71225 611.000
25.95775 782.000
26.20326 842.000
26.44876 1612.000
26.69427 6738.000
26.93977 585.000
27.18527 495.000
27.43078 549.000
27.67628 527.000
27.92179 485.000
28.16729 443.000
28.41279 430.000
28.65830 401.000
28.90380 404.000
29.14931 377.000
29.39481 425.000
29.64031 405.000
29.88582 484.000
30.13132 411.000
30.37683 451.000
30.62233 378.000
30.86783 559.000
31.11334 613.000
31.35884 506.000
31.60434 414.000
31.84985 445.000
32.09535 429.000
32.34086 403.000
32.58636 445.000
32.83186 451.000
33.07737 811.000
33.32287 575.000
33.56838 393.000
33.81388 333.000
34.05938 383.000
34.30489 394.000
34.55039 414.000
34.79590 438.000
35.04140 513.000
35.28690 696.000
35.53241 809.000
35.77791 690.000
36.02342 564.000
36.26892 573.000
36.51442 1905.000
36.75993 804.000
37.00543 670.000
37.25094 465.000
37.49644 433.000
37.74194 431.000
37.98745 366.000
38.23295 315.000
38.47845 369.000
38.72396 327.000
38.96946 345.000
39.21497 479.000
39.46047 1338.000
39.70597 364.000
39.95148 325.000
40.19698 706.000
40.44249 439.000
40.68799 574.000
40.93349 666.000
41.17900 430.000
41.42450 332.000
41.67001 293.000
41.91551 335.000
42.16101 452.000
42.40652 1220.000
42.65202 421.000
42.89753 364.000
43.14303 365.000
43.38853 339.000
43.63404 314.000
43.87954 292.000
44.12504 374.000
44.37055 401.000
44.61605 483.000
44.86156 453.000
45.10706 411.000
45.35256 401.000
45.59807 465.000
45.84357 640.000
46.08908 348.000
46.33458 312.000
46.58008 297.000
46.82559 288.000
47.07109 300.000
47.31660 253.000
47.56210 291.000
47.80760 314.000
48.05311 393.000
48.29861 312.000
48.54412 299.000
48.78962 302.000
49.03512 311.000
49.28063 414.000
49.52613 496.000
49.77164 399.000
50.01714 1569.000
50.26264 1169.000
50.50815 299.000
50.75365 294.000
50.99915 272.000
51.24466 312.000
51.49016 260.000
51.73567 269.000
51.98117 260.000
52.22667 255.000
52.47218 296.000
52.71768 291.000
52.96319 292.000
53.20869 365.000
53.45419 366.000
53.69970 438.000
53.94520 617.000
54.19071 559.000
54.43621 443.000
54.68171 514.000
54.92722 767.000
55.17272 551.000
55.41823 556.000
55.66373 341.000
55.90923 317.000
56.15474 330.000
56.40024 363.000
56.64574 383.000
56.89125 405.000
57.13675 416.000
57.38226 466.000
57.62776 461.000
57.87326 404.000
58.11877 385.000
58.36427 402.000
58.60978 458.000
58.85528 512.000
59.10078 533.000
59.34629 477.000
59.59179 571.000
59.83730 1636.000
60.08280 1296.000
60.32830 549.000
60.57381 657.000
60.81931 546.000
61.06482 477.000
61.31032 361.000
61.55582 360.000
61.80133 408.000
62.04683 420.000
62.29234 467.000
62.53784 565.000
62.78334 470.000
63.02885 431.000
63.27435 430.000
63.51985 486.000
63.76536 461.000
64.01086 810.000
64.25637 563.000
64.50187 623.000
64.74737 668.000
64.99288 676.000
65.23838 621.000
65.48389 571.000
65.72939 652.000
65.97489 538.000
66.22040 521.000
66.46590 529.000
66.71141 485.000
66.95691 447.000
67.20241 494.000
67.44792 558.000
67.69342 1473.000
67.93893 1079.000
68.18443 1565.000
68.42993 869.000
68.67544 406.000
68.92094 385.000
69.16644 387.000
69.41195 379.000
69.65745 388.000
69.90296 391.000
70.14846 386.000
70.39396 460.000
70.63947 404.000
70.88497 411.000
71.13048 390.000
71.37598 367.000
71.62148 371.000
71.86699 396.000
72.11249 362.000
72.35800 354.000
72.60350 357.000
72.84900 354.000
73.09451 366.000
73.34001 551.000
73.58552 545.000
73.83102 395.000
74.07652 433.000
74.32203 441.000
74.56753 400.000
74.81303 417.000
75.05854 459.000
75.30404 485.000
75.54955 846.000
75.79505 651.000
76.04055 366.000
76.28606 319.000
76.53156 352.000
76.77707 350.000
77.02257 412.000
77.26807 376.000
77.51358 489.000
77.75908 437.000
78.00459 329.000
78.25009 317.000
78.49559 317.000
78.74110 283.000
78.98660 304.000
79.23211 297.000
79.47761 328.000
79.72311 625.000
79.96862 619.000
80.00953 646.000